# Max change (t), [t] - время свободного пробега
0.02	4.75532	0.987193	0.987422
0.04	4.73147	0.998983	0.999488
0.06	4.70719	1.01116	1.01159
0.08	4.68356	1.02293	1.02345
0.1	4.66052	1.03441	1.03501
0.12	4.63775	1.04589	1.0463
0.14	4.61499	1.05727	1.05768
0.16	4.59219	1.06849	1.06926
0.18	4.56959	1.07976	1.08059
0.2	4.54757	1.09092	1.09145
0.22	4.52549	1.10187	1.10258
0.24	4.5035	1.11284	1.1136
0.26	4.48204	1.12355	1.12434
0.28	4.4607	1.13413	1.13511
0.3	4.44009	1.14444	1.14541
0.32	4.41959	1.1547	1.15565
0.34	4.39878	1.16513	1.16602
0.36	4.3783	1.17539	1.17625
0.38	4.35809	1.18565	1.18619
0.4	4.33776	1.19572	1.19645
0.42	4.31818	1.20563	1.20613
0.44	4.29865	1.21529	1.216
0.46	4.27917	1.22508	1.22568
0.48	4.26014	1.23478	1.23502
0.5	4.24089	1.24432	1.24472
0.52	4.22179	1.25405	1.2541
0.54	4.20286	1.2634	1.26367
0.56	4.18438	1.27262	1.27294
0.58	4.16619	1.28178	1.28198
0.6	4.14826	1.29079	1.29089
0.62	4.13	1.29984	1.30009
0.64	4.1122	1.30878	1.30896
0.66	4.09454	1.3175	1.31789
0.68	4.07721	1.32611	1.32662
0.7	4.06013	1.33469	1.33511
0.72	4.04338	1.34314	1.34341
0.74	4.02655	1.35157	1.35181
0.76	4.01021	1.35985	1.35987
0.78	3.99346	1.3682	1.36827
0.8	3.97743	1.37637	1.37613
0.82	3.9611	1.38457	1.38427
0.84	3.94495	1.3927	1.39228
0.86	3.92908	1.40072	1.40014
0.88	3.91371	1.40863	1.40759
0.9	3.8984	1.41623	1.41531
0.92	3.88274	1.42397	1.42322
0.94	3.86724	1.43179	1.4309
0.96	3.85185	1.4394	1.43868
0.98	3.83694	1.44672	1.44628
1	3.82231	1.45403	1.4536
1.02	3.80756	1.46136	1.46102
1.04	3.79289	1.46866	1.46838
1.06	3.7784	1.47594	1.47559
1.08	3.7642	1.48302	1.48271
1.1	3.7499	1.49005	1.48998
1.12	3.73574	1.49698	1.49722
1.14	3.72192	1.50388	1.50414
1.16	3.70807	1.5108	1.51107
1.18	3.69465	1.51753	1.51776
1.2	3.6811	1.52433	1.5245
1.22	3.6676	1.53106	1.53127
1.24	3.65427	1.53769	1.53798
1.26	3.64119	1.54422	1.54453
1.28	3.62811	1.55073	1.55109
1.3	3.61524	1.55717	1.55753
1.32	3.60236	1.56362	1.56396
1.34	3.58962	1.57004	1.57028
1.36	3.57696	1.57627	1.5767
1.38	3.56473	1.58246	1.58275
1.4	3.55228	1.58866	1.58899
1.42	3.54014	1.59468	1.59511
1.44	3.52837	1.60061	1.60096
1.46	3.51651	1.60649	1.60694
1.48	3.50492	1.61231	1.6127
1.5	3.49334	1.61809	1.6185
1.52	3.48166	1.62392	1.62435
1.54	3.46995	1.62983	1.63016
1.56	3.45857	1.63551	1.63586
1.58	3.44738	1.64111	1.64144
1.6	3.43609	1.64668	1.64717
1.62	3.4252	1.65209	1.65265
1.64	3.41428	1.65755	1.6581
1.66	3.40345	1.66298	1.6635
1.68	3.39298	1.66823	1.66873
1.7	3.38246	1.67343	1.67404
1.72	3.37189	1.67871	1.67934
1.74	3.36147	1.68398	1.68449
1.76	3.35125	1.6891	1.68959
1.78	3.34111	1.69414	1.69469
1.8	3.33118	1.69907	1.69969
1.82	3.32113	1.70412	1.70469
1.84	3.31103	1.70915	1.70975
1.86	3.30123	1.71402	1.71468
1.88	3.29149	1.71893	1.71952
1.9	3.28183	1.72374	1.72437
1.92	3.27228	1.72852	1.72913
1.94	3.26288	1.73317	1.73388
1.96	3.25328	1.73796	1.7387
1.98	3.2441	1.74257	1.74327
2	3.23496	1.7471	1.74788
2.02	3.22587	1.7516	1.75247
2.04	3.21686	1.75612	1.75696
2.06	3.20792	1.7606	1.76141
2.08	3.19901	1.76502	1.76591
2.1	3.19012	1.76943	1.77039
2.12	3.18164	1.7737	1.77459
2.14	3.17303	1.77799	1.77891
2.16	3.1644	1.7823	1.78323
2.18	3.15594	1.78658	1.78742
2.2	3.14751	1.7908	1.79162
2.22	3.13923	1.79493	1.79577
2.24	3.13106	1.79899	1.79988
2.26	3.12289	1.80302	1.80402
2.28	3.11488	1.80709	1.80797
2.3	3.10694	1.8111	1.81189
2.32	3.099	1.81507	1.81587
2.34	3.0911	1.81903	1.81981
2.36	3.08351	1.82284	1.82359
2.38	3.07572	1.82675	1.82746
2.4	3.06813	1.83056	1.83125
2.42	3.06062	1.83429	1.83502
2.44	3.05307	1.83808	1.83878
2.46	3.0457	1.8418	1.84243
2.48	3.03848	1.84541	1.84605
2.5	3.03112	1.84906	1.84975
2.52	3.02394	1.85266	1.85334
2.54	3.0167	1.85628	1.85695
2.56	3.00966	1.8598	1.86047
2.58	3.00269	1.86328	1.86397
2.6	2.9958	1.86673	1.8674
2.62	2.98885	1.87022	1.87087
2.64	2.982	1.87364	1.8743
2.66	2.97537	1.87701	1.87756
2.68	2.96875	1.88033	1.88086
2.7	2.96213	1.88363	1.88418
2.72	2.95565	1.88687	1.88742
2.74	2.94915	1.89014	1.89064
2.76	2.94277	1.89338	1.89379
2.78	2.93654	1.89651	1.89688
2.8	2.9302	1.89971	1.90003
2.82	2.92399	1.90279	1.90315
2.84	2.91782	1.90589	1.90622
2.86	2.91167	1.90897	1.9093
2.88	2.90565	1.91199	1.9123
2.9	2.89964	1.91503	1.91527
2.92	2.89367	1.91799	1.91828
2.94	2.88772	1.92091	1.9213
2.96	2.88189	1.92382	1.92422
2.98	2.87607	1.92676	1.92711
3	2.8702	1.92966	1.93008
3.02	2.8645	1.93252	1.93292
3.04	2.85884	1.93533	1.93577
3.06	2.85339	1.93808	1.93846
3.08	2.84799	1.9408	1.94115
3.1	2.84242	1.94357	1.94395
3.12	2.83696	1.94629	1.94669
3.14	2.83158	1.94896	1.9494
3.16	2.82625	1.9516	1.95208
3.18	2.82095	1.95426	1.95472
3.2	2.81571	1.95689	1.95734
3.22	2.81045	1.95953	1.95996
3.24	2.80529	1.96211	1.96253
3.26	2.80029	1.96461	1.96503
3.28	2.79533	1.9671	1.9675
3.3	2.79035	1.96959	1.96999
3.32	2.78539	1.97204	1.97251
3.34	2.78053	1.97447	1.97494
3.36	2.77567	1.97688	1.97739
3.38	2.77097	1.97922	1.97974
3.4	2.76626	1.98156	1.98212
3.42	2.76151	1.98391	1.98451
3.44	2.7568	1.98628	1.98686
3.46	2.75219	1.98861	1.98914
3.48	2.74752	1.99095	1.99147
3.5	2.74304	1.99319	1.9937
3.52	2.73854	1.99544	1.99596
3.54	2.73399	1.99773	1.99822
3.56	2.72964	1.99992	2.00037
3.58	2.72525	2.00213	2.00256
3.6	2.72087	2.00432	2.00475
3.62	2.7166	2.00646	2.00687
3.64	2.71244	2.00856	2.00893
3.66	2.70823	2.01066	2.01104
3.68	2.70399	2.01279	2.01316
3.7	2.69981	2.01487	2.01526
3.72	2.69575	2.01691	2.01727
3.74	2.69168	2.01895	2.0193
3.76	2.68763	2.02097	2.02134
3.78	2.68368	2.02297	2.02329
3.8	2.67972	2.02496	2.02526
3.82	2.67583	2.02691	2.02719
3.84	2.67193	2.02885	2.02916
3.86	2.66804	2.03081	2.03109
3.88	2.6642	2.03271	2.03302
3.9	2.66045	2.0346	2.03488
3.92	2.65671	2.03648	2.03674
3.94	2.65297	2.03836	2.03861
3.96	2.6493	2.04018	2.04045
3.98	2.64568	2.042	2.04225
4	2.64217	2.04377	2.04399
4.02	2.63855	2.04558	2.0458
4.04	2.63496	2.04737	2.0476
4.06	2.63148	2.04914	2.04931
4.08	2.62799	2.0509	2.05105
4.1	2.62457	2.0526	2.05276
4.12	2.62119	2.0543	2.05445
4.14	2.61777	2.05601	2.05616
4.16	2.61438	2.0577	2.05786
4.18	2.61096	2.05939	2.05958
4.2	2.60769	2.06103	2.06122
4.22	2.60441	2.06268	2.06284
4.24	2.6012	2.06429	2.06445
4.26	2.598	2.0659	2.06604
4.28	2.59483	2.06749	2.06761
4.3	2.59167	2.06909	2.06918
4.32	2.58853	2.07066	2.07075
4.34	2.58542	2.07222	2.0723
4.36	2.58231	2.07377	2.07386
4.38	2.57925	2.07531	2.07538
4.4	2.5762	2.07683	2.0769
4.42	2.5732	2.07834	2.0784
4.44	2.57023	2.07983	2.07988
4.46	2.56728	2.08129	2.08136
4.48	2.56443	2.08273	2.08278
4.5	2.5615	2.0842	2.08424
4.52	2.55864	2.08562	2.08568
4.54	2.5558	2.08706	2.08708
4.56	2.55297	2.08846	2.0885
4.58	2.5502	2.08985	2.08989
4.6	2.54748	2.09119	2.09126
4.62	2.54474	2.09256	2.09264
4.64	2.54203	2.09392	2.09398
4.66	2.53936	2.09526	2.09532
4.68	2.53669	2.09659	2.09666
4.7	2.53411	2.09788	2.09794
4.72	2.5315	2.09918	2.09926
4.74	2.52888	2.10048	2.10058
4.76	2.52637	2.10174	2.10182
4.78	2.52384	2.10302	2.10308
4.8	2.52135	2.10424	2.10434
4.82	2.51886	2.10549	2.10559
4.84	2.51644	2.10671	2.10679
4.86	2.51404	2.10792	2.10797
4.88	2.51163	2.10913	2.10917
4.9	2.50924	2.11033	2.11037
4.92	2.50686	2.11152	2.11156
4.94	2.50453	2.11268	2.11273
4.96	2.50217	2.11385	2.11391
4.98	2.49988	2.11501	2.11505
5	2.49759	2.11614	2.1162
5.02	2.49532	2.11727	2.11734
5.04	2.49305	2.11842	2.11847
5.06	2.49082	2.11953	2.11959
5.08	2.48861	2.12063	2.12069
5.1	2.48639	2.12173	2.12181
5.12	2.48424	2.12281	2.12289
5.14	2.48209	2.12388	2.12397
5.16	2.47995	2.12494	2.12505
5.18	2.47783	2.12598	2.12612
5.2	2.47577	2.12702	2.12715
5.22	2.47368	2.12807	2.12819
5.24	2.4716	2.12912	2.12922
5.26	2.46959	2.13012	2.13023
5.28	2.46757	2.13113	2.13124
5.3	2.46556	2.13214	2.13223
5.32	2.46356	2.13315	2.13323
5.34	2.46157	2.13414	2.13423
5.36	2.45962	2.13512	2.1352
5.38	2.4577	2.13609	2.13614
5.4	2.45579	2.13704	2.1371
5.42	2.45389	2.138	2.13804
5.44	2.45201	2.13894	2.13898
5.46	2.45016	2.13987	2.13991
5.48	2.44831	2.14079	2.14084
5.5	2.44649	2.14171	2.14173
5.52	2.44471	2.1426	2.14262
5.54	2.44292	2.14351	2.14351
5.56	2.44117	2.14438	2.14438
5.58	2.4394	2.14527	2.14527
5.6	2.43765	2.14615	2.14614
5.62	2.43593	2.147	2.147
5.64	2.43421	2.14786	2.14786
5.66	2.43251	2.14871	2.14871
5.68	2.43081	2.14956	2.14957
5.7	2.42915	2.15039	2.1504
5.72	2.4275	2.15121	2.15123
5.74	2.42589	2.15201	2.15203
5.76	2.42425	2.15282	2.15287
5.78	2.42265	2.15362	2.15366
5.8	2.42107	2.15441	2.15446
5.82	2.41949	2.1552	2.15525
5.84	2.4179	2.156	2.15603
5.86	2.41635	2.15677	2.15682
5.88	2.4148	2.15755	2.15759
5.9	2.41327	2.15831	2.15835
5.92	2.41178	2.15906	2.15909
5.94	2.41027	2.15981	2.15985
5.96	2.40878	2.16056	2.1606
5.98	2.40733	2.16128	2.16132
6	2.40587	2.16202	2.16205
6.02	2.40441	2.16274	2.16278
6.04	2.40298	2.16346	2.1635
6.06	2.40157	2.16416	2.16421
6.08	2.40018	2.16487	2.16489
6.1	2.39877	2.16557	2.1656
6.12	2.39738	2.16627	2.16629
6.14	2.396	2.16697	2.16697
6.16	2.39467	2.16763	2.16764
6.18	2.39333	2.1683	2.16831
6.2	2.392	2.16897	2.16897
6.22	2.39068	2.16963	2.16963
6.24	2.38935	2.17029	2.17029
6.26	2.38805	2.17094	2.17095
6.28	2.38677	2.17159	2.17158
6.3	2.38549	2.17223	2.17222
6.32	2.38421	2.17285	2.17287
6.34	2.38296	2.17348	2.17349
6.36	2.38171	2.1741	2.17412
6.38	2.3805	2.17471	2.17473
6.4	2.37928	2.17532	2.17533
6.42	2.37808	2.17593	2.17593
6.44	2.3769	2.17652	2.17652
6.46	2.37571	2.17711	2.17711
6.48	2.37454	2.1777	2.17769
6.5	2.37339	2.17828	2.17827
6.52	2.37226	2.17884	2.17884
6.54	2.37111	2.17941	2.17941
6.56	2.36998	2.17997	2.17998
6.58	2.36886	2.18054	2.18053
6.6	2.36775	2.1811	2.18109
6.62	2.36663	2.18165	2.18165
6.64	2.36553	2.18221	2.1822
6.66	2.36446	2.18274	2.18274
6.68	2.36339	2.18328	2.18327
6.7	2.36232	2.18381	2.18381
6.72	2.36126	2.18434	2.18433
6.74	2.3602	2.18487	2.18487
6.76	2.35915	2.18539	2.18539
6.78	2.35813	2.1859	2.1859
6.8	2.3571	2.18642	2.18641
6.82	2.35608	2.18693	2.18693
6.84	2.35507	2.18743	2.18744
6.86	2.35407	2.18793	2.18793
6.88	2.35309	2.18842	2.18842
6.9	2.35211	2.18892	2.18891
6.92	2.35114	2.18939	2.1894
6.94	2.35018	2.18988	2.18988
6.96	2.34923	2.19035	2.19035
6.98	2.34828	2.19083	2.19083
7	2.34735	2.19129	2.1913
7.02	2.34643	2.19175	2.19175
7.04	2.3455	2.19221	2.19222
7.06	2.34461	2.19266	2.19266
7.08	2.34372	2.1931	2.19311
7.1	2.34283	2.19355	2.19355
7.12	2.34194	2.194	2.19399
7.14	2.34106	2.19444	2.19443
7.16	2.34019	2.19488	2.19487
7.18	2.33934	2.19531	2.19529
7.2	2.3385	2.19572	2.19571
7.22	2.33766	2.19615	2.19613
7.24	2.33682	2.19657	2.19655
7.26	2.336	2.19697	2.19697
7.28	2.33517	2.19739	2.19737
7.3	2.33436	2.1978	2.19778
7.32	2.33354	2.19821	2.19818
7.34	2.33274	2.19861	2.19858
7.36	2.33196	2.199	2.19897
7.38	2.33118	2.19939	2.19936
7.4	2.3304	2.19978	2.19976
7.42	2.32962	2.20017	2.20015
7.44	2.32886	2.20055	2.20053
7.46	2.32809	2.20093	2.20091
7.48	2.32735	2.2013	2.20128
7.5	2.3266	2.20168	2.20166
7.52	2.32586	2.20205	2.20203
7.54	2.32513	2.20242	2.20239
7.56	2.32441	2.20278	2.20275
7.58	2.3237	2.20313	2.20311
7.6	2.32299	2.20349	2.20346
7.62	2.32227	2.20385	2.20381
7.64	2.32158	2.20419	2.20416
7.66	2.32087	2.20455	2.20451
7.68	2.32018	2.20489	2.20486
7.7	2.31949	2.20524	2.20521
7.72	2.31881	2.20558	2.20555
7.74	2.31814	2.20592	2.20588
7.76	2.31748	2.20624	2.20621
7.78	2.31681	2.20657	2.20655
7.8	2.31616	2.2069	2.20688
7.82	2.31552	2.20722	2.20719
7.84	2.31488	2.20754	2.20751
7.86	2.31424	2.20786	2.20783
7.88	2.31361	2.20818	2.20815
7.9	2.31298	2.20849	2.20847
7.92	2.31236	2.2088	2.20878
7.94	2.31174	2.20911	2.20909
7.96	2.31115	2.2094	2.20938
7.98	2.31054	2.2097	2.20969
8	2.30995	2.21	2.20999
8.02	2.30935	2.2103	2.21028
8.04	2.30876	2.21059	2.21058
8.06	2.30818	2.21089	2.21087
8.08	2.30759	2.21118	2.21117
8.1	2.30702	2.21147	2.21145
8.12	2.30645	2.21175	2.21173
8.14	2.30589	2.21204	2.21201
8.16	2.30534	2.21231	2.21229
8.18	2.30479	2.21258	2.21256
8.2	2.30424	2.21286	2.21284
8.22	2.30371	2.21312	2.2131
8.24	2.30319	2.21339	2.21336
8.26	2.30266	2.21365	2.21363
8.28	2.30214	2.21391	2.21389
8.3	2.30162	2.21417	2.21415
8.32	2.3011	2.21443	2.21441
8.34	2.30059	2.21468	2.21466
8.36	2.30009	2.21494	2.21491
8.38	2.29959	2.21518	2.21516
8.4	2.29909	2.21544	2.2154
8.42	2.2986	2.21568	2.21565
8.44	2.29812	2.21593	2.21589
8.46	2.29764	2.21617	2.21613
8.48	2.29716	2.21641	2.21637
8.5	2.29668	2.21665	2.21661
8.52	2.29621	2.21688	2.21684
8.54	2.29574	2.21712	2.21708
8.56	2.29527	2.21735	2.21732
8.58	2.29482	2.21758	2.21754
8.6	2.29437	2.2178	2.21777
8.62	2.29392	2.21802	2.21799
8.64	2.29348	2.21824	2.21821
8.66	2.29304	2.21846	2.21844
8.68	2.2926	2.21868	2.21865
8.7	2.29217	2.21889	2.21887
8.72	2.29173	2.21911	2.21909
8.74	2.29131	2.21933	2.2193
8.76	2.29087	2.21954	2.21952
8.78	2.29046	2.21975	2.21973
8.8	2.29004	2.21996	2.21993
8.82	2.28963	2.22017	2.22014
8.84	2.28922	2.22037	2.22034
8.86	2.28881	2.22058	2.22055
8.88	2.28841	2.22078	2.22075
8.9	2.28801	2.22098	2.22094
8.92	2.28762	2.22118	2.22114
8.94	2.28723	2.22137	2.22134
8.96	2.28684	2.22156	2.22153
8.98	2.28645	2.22176	2.22173
9	2.28608	2.22195	2.22192
9.02	2.2857	2.22213	2.2221
9.04	2.28532	2.22232	2.22229
9.06	2.28495	2.22251	2.22248
9.08	2.28458	2.22269	2.22266
9.1	2.28422	2.22287	2.22285
9.12	2.28385	2.22306	2.22303
9.14	2.28349	2.22323	2.22321
9.16	2.28314	2.22341	2.22338
9.18	2.28279	2.22358	2.22356
9.2	2.28244	2.22376	2.22373
9.22	2.2821	2.22393	2.22391
9.24	2.28176	2.2241	2.22408
9.26	2.28142	2.22427	2.22424
9.28	2.28108	2.22444	2.22442
9.3	2.28075	2.22461	2.22458
9.32	2.28042	2.22477	2.22474
9.34	2.2801	2.22493	2.22491
9.36	2.27977	2.22509	2.22507
9.38	2.27945	2.22525	2.22523
9.4	2.27913	2.22541	2.22539
9.42	2.27882	2.22557	2.22555
9.44	2.2785	2.22573	2.2257
9.46	2.2782	2.22588	2.22586
9.48	2.27789	2.22604	2.22601
9.5	2.27758	2.22619	2.22617
9.52	2.27728	2.22634	2.22632
9.54	2.27698	2.2265	2.22646
9.56	2.27667	2.22665	2.22662
9.58	2.27638	2.2268	2.22676
9.6	2.27608	2.22694	2.22691
9.62	2.2758	2.22708	2.22706
9.64	2.27551	2.22722	2.2272
9.66	2.27523	2.22737	2.22734
9.68	2.27494	2.22751	2.22748
9.7	2.27466	2.22765	2.22762
9.72	2.27438	2.22779	2.22776
9.74	2.27411	2.22793	2.2279
9.76	2.27384	2.22806	2.22803
9.78	2.27357	2.2282	2.22817
9.8	2.2733	2.22833	2.22831
9.82	2.27304	2.22846	2.22844
9.84	2.27278	2.22859	2.22857
9.86	2.27252	2.22872	2.2287
9.88	2.27226	2.22885	2.22882
9.9	2.272	2.22898	2.22895
9.92	2.27175	2.2291	2.22908
9.94	2.2715	2.22923	2.22921
9.96	2.27125	2.22935	2.22933
9.98	2.271	2.22948	2.22946
10	2.27076	2.2296	2.22958
10.02	2.27052	2.22972	2.2297
10.04	2.27027	2.22984	2.22982
10.06	2.27003	2.22996	2.22994
10.08	2.2698	2.23008	2.23006
10.1	2.26956	2.2302	2.23018
10.12	2.26933	2.23031	2.2303
10.14	2.2691	2.23043	2.23041
10.16	2.26888	2.23054	2.23052
10.18	2.26865	2.23065	2.23063
10.2	2.26842	2.23076	2.23075
10.22	2.2682	2.23088	2.23086
10.24	2.26798	2.23098	2.23097
10.26	2.26777	2.23109	2.23108
10.28	2.26755	2.2312	2.23118
10.3	2.26734	2.23131	2.23129
10.32	2.26713	2.23141	2.2314
10.34	2.26692	2.23152	2.2315
10.36	2.26671	2.23162	2.23161
10.38	2.26651	2.23172	2.23171
10.4	2.2663	2.23183	2.23181
10.42	2.2661	2.23193	2.23191
10.44	2.26589	2.23203	2.23201
10.46	2.26569	2.23213	2.23211
10.48	2.26549	2.23223	2.23221
10.5	2.2653	2.23233	2.23231
10.52	2.26511	2.23242	2.23241
10.54	2.26491	2.23252	2.2325
10.56	2.26473	2.23261	2.2326
10.58	2.26454	2.23271	2.23269
10.6	2.26434	2.2328	2.23279
10.62	2.26416	2.23289	2.23288
10.64	2.26398	2.23298	2.23297
10.66	2.2638	2.23307	2.23306
10.68	2.26362	2.23317	2.23315
10.7	2.26344	2.23325	2.23324
10.72	2.26326	2.23334	2.23333
10.74	2.26309	2.23343	2.23342
10.76	2.26291	2.23352	2.23351
10.78	2.26273	2.23361	2.2336
10.8	2.26256	2.23369	2.23368
10.82	2.26239	2.23378	2.23377
10.84	2.26222	2.23386	2.23385
10.86	2.26206	2.23394	2.23393
10.88	2.26189	2.23403	2.23402
10.9	2.26173	2.23411	2.2341
10.92	2.26157	2.23419	2.23418
10.94	2.26141	2.23427	2.23426
10.96	2.26125	2.23435	2.23434
10.98	2.26109	2.23443	2.23442
11	2.26093	2.23451	2.2345
11.02	2.26078	2.23458	2.23457
11.04	2.26062	2.23466	2.23465
11.06	2.26047	2.23474	2.23473
11.08	2.26032	2.23481	2.2348
11.1	2.26017	2.23489	2.23488
11.12	2.26002	2.23496	2.23495
11.14	2.25987	2.23504	2.23503
11.16	2.25973	2.23511	2.2351
11.18	2.25958	2.23518	2.23517
11.2	2.25944	2.23525	2.23524
11.22	2.2593	2.23532	2.23532
11.24	2.25916	2.23539	2.23539
11.26	2.25902	2.23546	2.23546
11.28	2.25888	2.23553	2.23552
11.3	2.25874	2.2356	2.23559
11.32	2.25861	2.23567	2.23566
11.34	2.25848	2.23573	2.23573
11.36	2.25834	2.2358	2.23579
11.38	2.25821	2.23587	2.23586
11.4	2.25808	2.23593	2.23592
11.42	2.25795	2.236	2.23599
11.44	2.25782	2.23606	2.23605
11.46	2.25769	2.23613	2.23612
11.48	2.25756	2.23619	2.23618
11.5	2.25744	2.23625	2.23625
11.52	2.25731	2.23632	2.23631
11.54	2.25719	2.23638	2.23637
11.56	2.25707	2.23644	2.23643
11.58	2.25694	2.2365	2.23649
11.6	2.25682	2.23656	2.23655
11.62	2.25671	2.23662	2.23661
11.64	2.25659	2.23668	2.23667
11.66	2.25647	2.23673	2.23673
11.68	2.25636	2.23679	2.23679
11.7	2.25624	2.23685	2.23684
11.72	2.25613	2.23691	2.2369
11.74	2.25602	2.23696	2.23696
11.76	2.2559	2.23702	2.23701
11.78	2.2558	2.23707	2.23707
11.8	2.25569	2.23713	2.23712
11.82	2.25558	2.23718	2.23718
11.84	2.25547	2.23723	2.23723
11.86	2.25537	2.23729	2.23728
11.88	2.25526	2.23734	2.23733
11.9	2.25515	2.23739	2.23739
11.92	2.25505	2.23745	2.23744
11.94	2.25495	2.2375	2.23749
11.96	2.25484	2.23755	2.23754
11.98	2.25474	2.2376	2.23759
12	2.25464	2.23765	2.23764
12.02	2.25454	2.2377	2.23769
12.04	2.25444	2.23775	2.23774
12.06	2.25435	2.2378	2.23779
12.08	2.25425	2.23785	2.23784
12.1	2.25415	2.23789	2.23789
12.12	2.25405	2.23794	2.23794
12.14	2.25396	2.23799	2.23799
12.16	2.25386	2.23804	2.23803
12.18	2.25377	2.23809	2.23808
12.2	2.25368	2.23813	2.23813
12.22	2.25359	2.23818	2.23817
12.24	2.2535	2.23822	2.23822
12.26	2.25341	2.23827	2.23826
12.28	2.25332	2.23831	2.23831
12.3	2.25323	2.23836	2.23835
12.32	2.25314	2.2384	2.23839
12.34	2.25306	2.23844	2.23843
12.36	2.25297	2.23849	2.23848
12.38	2.25289	2.23853	2.23852
12.4	2.2528	2.23857	2.23856
12.42	2.25272	2.23861	2.2386
12.44	2.25264	2.23865	2.23865
12.46	2.25256	2.23869	2.23869
12.48	2.25248	2.23873	2.23873
12.5	2.25239	2.23877	2.23877
12.52	2.25231	2.23881	2.23881
12.54	2.25224	2.23885	2.23885
12.56	2.25216	2.23889	2.23889
12.58	2.25208	2.23893	2.23892
12.6	2.252	2.23897	2.23896
12.62	2.25192	2.23901	2.239
12.64	2.25185	2.23905	2.23904
12.66	2.25177	2.23909	2.23908
12.68	2.2517	2.23912	2.23912
12.7	2.25162	2.23916	2.23915
12.72	2.25155	2.2392	2.23919
12.74	2.25148	2.23923	2.23923
12.76	2.25141	2.23927	2.23926
12.78	2.25134	2.2393	2.2393
12.8	2.25127	2.23934	2.23933
12.82	2.2512	2.23937	2.23937
12.84	2.25113	2.23941	2.2394
12.86	2.25106	2.23944	2.23944
12.88	2.25099	2.23948	2.23947
12.9	2.25092	2.23951	2.2395
12.92	2.25086	2.23954	2.23954
12.94	2.25079	2.23958	2.23957
12.96	2.25072	2.23961	2.2396
12.98	2.25066	2.23964	2.23964
13	2.25059	2.23968	2.23967
13.02	2.25053	2.23971	2.2397
13.04	2.25046	2.23974	2.23973
13.06	2.2504	2.23977	2.23976
13.08	2.25034	2.2398	2.23979
13.1	2.25028	2.23983	2.23983
13.12	2.25021	2.23986	2.23986
13.14	2.25015	2.2399	2.23989
13.16	2.25009	2.23993	2.23992
13.18	2.25003	2.23996	2.23995
13.2	2.24997	2.23998	2.23998
13.22	2.24992	2.24001	2.24001
13.24	2.24986	2.24004	2.24004
13.26	2.2498	2.24007	2.24006
13.28	2.24974	2.2401	2.24009
13.3	2.24969	2.24013	2.24012
13.32	2.24963	2.24016	2.24015
13.34	2.24957	2.24018	2.24018
13.36	2.24952	2.24021	2.2402
13.38	2.24947	2.24024	2.24023
13.4	2.24941	2.24027	2.24026
13.42	2.24936	2.24029	2.24028
13.44	2.2493	2.24032	2.24031
13.46	2.24925	2.24035	2.24034
13.48	2.2492	2.24037	2.24036
13.5	2.24915	2.2404	2.24039
13.52	2.2491	2.24042	2.24041
13.54	2.24905	2.24045	2.24044
13.56	2.249	2.24047	2.24047
13.58	2.24895	2.2405	2.24049
13.6	2.2489	2.24052	2.24052
13.62	2.24885	2.24055	2.24054
13.64	2.2488	2.24057	2.24056
13.66	2.24875	2.2406	2.24059
13.68	2.2487	2.24062	2.24061
13.7	2.24866	2.24064	2.24064
13.72	2.24861	2.24067	2.24066
13.74	2.24856	2.24069	2.24068
13.76	2.24852	2.24071	2.24071
13.78	2.24847	2.24074	2.24073
13.8	2.24842	2.24076	2.24075
13.82	2.24838	2.24078	2.24077
13.84	2.24833	2.24081	2.2408
13.86	2.24829	2.24083	2.24082
13.88	2.24825	2.24085	2.24084
13.9	2.2482	2.24087	2.24086
13.92	2.24816	2.24089	2.24088
13.94	2.24812	2.24091	2.2409
13.96	2.24808	2.24093	2.24093
13.98	2.24803	2.24095	2.24095
14	2.24799	2.24097	2.24097
14.02	2.24795	2.241	2.24099
14.04	2.24791	2.24102	2.24101
14.06	2.24787	2.24104	2.24103
14.08	2.24783	2.24106	2.24105
14.1	2.24779	2.24108	2.24107
14.12	2.24775	2.24109	2.24109
14.14	2.24771	2.24111	2.24111
14.16	2.24768	2.24113	2.24113
14.18	2.24764	2.24115	2.24115
14.2	2.2476	2.24117	2.24116
14.22	2.24756	2.24119	2.24118
14.24	2.24752	2.24121	2.2412
14.26	2.24749	2.24123	2.24122
14.28	2.24745	2.24125	2.24124
14.3	2.24741	2.24126	2.24126
14.32	2.24738	2.24128	2.24128
14.34	2.24734	2.2413	2.24129
14.36	2.24731	2.24132	2.24131
14.38	2.24727	2.24134	2.24133
14.4	2.24724	2.24135	2.24135
14.42	2.2472	2.24137	2.24136
14.44	2.24717	2.24139	2.24138
14.46	2.24713	2.2414	2.2414
14.48	2.2471	2.24142	2.24141
14.5	2.24707	2.24144	2.24143
14.52	2.24703	2.24145	2.24145
14.54	2.247	2.24147	2.24146
14.56	2.24697	2.24149	2.24148
14.58	2.24694	2.2415	2.2415
14.6	2.2469	2.24152	2.24151
14.62	2.24687	2.24153	2.24153
14.64	2.24684	2.24155	2.24154
14.66	2.24681	2.24157	2.24156
14.68	2.24678	2.24158	2.24158
14.7	2.24675	2.2416	2.24159
14.72	2.24672	2.24161	2.24161
14.74	2.24669	2.24163	2.24162
14.76	2.24666	2.24164	2.24164
14.78	2.24663	2.24166	2.24165
14.8	2.2466	2.24167	2.24167
14.82	2.24657	2.24168	2.24168
14.84	2.24654	2.2417	2.24169
14.86	2.24651	2.24171	2.24171
14.88	2.24649	2.24173	2.24172
14.9	2.24646	2.24174	2.24174
14.92	2.24643	2.24176	2.24175
14.94	2.2464	2.24177	2.24176
14.96	2.24638	2.24178	2.24178
14.98	2.24635	2.2418	2.24179
15	2.24632	2.24181	2.2418
15.02	2.2463	2.24182	2.24182
15.04	2.24627	2.24184	2.24183
15.06	2.24624	2.24185	2.24184
15.08	2.24622	2.24186	2.24186
15.1	2.24619	2.24187	2.24187
15.12	2.24617	2.24189	2.24188
15.14	2.24614	2.2419	2.2419
15.16	2.24612	2.24191	2.24191
15.18	2.24609	2.24192	2.24192
15.2	2.24607	2.24194	2.24193
15.22	2.24604	2.24195	2.24194
15.24	2.24602	2.24196	2.24196
15.26	2.24599	2.24197	2.24197
15.28	2.24597	2.24198	2.24198
15.3	2.24595	2.242	2.24199
15.32	2.24592	2.24201	2.242
15.34	2.2459	2.24202	2.24202
15.36	2.24588	2.24203	2.24203
15.38	2.24586	2.24204	2.24204
15.4	2.24583	2.24205	2.24205
15.42	2.24581	2.24206	2.24206
15.44	2.24579	2.24207	2.24207
15.46	2.24577	2.24209	2.24208
15.48	2.24575	2.2421	2.24209
15.5	2.24573	2.24211	2.2421
15.52	2.24571	2.24212	2.24211
15.54	2.24568	2.24213	2.24212
15.56	2.24566	2.24214	2.24213
15.58	2.24564	2.24215	2.24214
15.6	2.24562	2.24216	2.24216
15.62	2.2456	2.24217	2.24217
15.64	2.24558	2.24218	2.24218
15.66	2.24556	2.24219	2.24219
15.68	2.24554	2.2422	2.2422
15.7	2.24552	2.24221	2.24221
15.72	2.2455	2.24222	2.24222
15.74	2.24548	2.24223	2.24222
15.76	2.24546	2.24224	2.24223
15.78	2.24545	2.24225	2.24224
15.8	2.24543	2.24226	2.24225
15.82	2.24541	2.24226	2.24226
15.84	2.24539	2.24227	2.24227
15.86	2.24537	2.24228	2.24228
15.88	2.24535	2.24229	2.24229
15.9	2.24534	2.2423	2.2423
15.92	2.24532	2.24231	2.24231
15.94	2.2453	2.24232	2.24232
15.96	2.24528	2.24233	2.24232
15.98	2.24527	2.24234	2.24233
16	2.24525	2.24234	2.24234
16.02	2.24523	2.24235	2.24235
16.04	2.24522	2.24236	2.24236
16.06	2.2452	2.24237	2.24237
16.08	2.24518	2.24238	2.24238
16.1	2.24517	2.24239	2.24238
16.12	2.24515	2.24239	2.24239
16.14	2.24513	2.2424	2.2424
16.16	2.24512	2.24241	2.24241
16.18	2.2451	2.24242	2.24242
16.2	2.24509	2.24243	2.24242
16.22	2.24507	2.24243	2.24243
16.24	2.24506	2.24244	2.24244
16.26	2.24504	2.24245	2.24245
16.28	2.24503	2.24246	2.24245
16.3	2.24501	2.24246	2.24246
16.32	2.245	2.24247	2.24247
16.34	2.24498	2.24248	2.24248
16.36	2.24497	2.24249	2.24248
16.38	2.24495	2.24249	2.24249
16.4	2.24494	2.2425	2.2425
16.42	2.24492	2.24251	2.24251
16.44	2.24491	2.24251	2.24251
16.46	2.24489	2.24252	2.24252
16.48	2.24488	2.24253	2.24253
16.5	2.24487	2.24254	2.24253
16.52	2.24485	2.24254	2.24254
16.54	2.24484	2.24255	2.24255
16.56	2.24483	2.24256	2.24255
16.58	2.24481	2.24256	2.24256
16.6	2.2448	2.24257	2.24257
16.62	2.24479	2.24258	2.24257
16.64	2.24477	2.24258	2.24258
16.66	2.24476	2.24259	2.24259
16.68	2.24475	2.24259	2.24259
16.7	2.24474	2.2426	2.2426
16.72	2.24472	2.24261	2.24261
16.74	2.24471	2.24261	2.24261
16.76	2.2447	2.24262	2.24262
16.78	2.24469	2.24263	2.24262
16.8	2.24467	2.24263	2.24263
16.82	2.24466	2.24264	2.24264
16.84	2.24465	2.24264	2.24264
16.86	2.24464	2.24265	2.24265
16.88	2.24463	2.24265	2.24265
16.9	2.24462	2.24266	2.24266
16.92	2.2446	2.24267	2.24267
16.94	2.24459	2.24267	2.24267
16.96	2.24458	2.24268	2.24268
16.98	2.24457	2.24268	2.24268
17	2.24456	2.24269	2.24269
17.02	2.24455	2.24269	2.24269
17.04	2.24454	2.2427	2.2427
17.06	2.24453	2.2427	2.2427
17.08	2.24452	2.24271	2.24271
17.1	2.24451	2.24272	2.24271
17.12	2.2445	2.24272	2.24272
17.14	2.24449	2.24273	2.24272
17.16	2.24448	2.24273	2.24273
17.18	2.24446	2.24274	2.24273
17.2	2.24445	2.24274	2.24274
17.22	2.24444	2.24275	2.24274
17.24	2.24443	2.24275	2.24275
17.26	2.24442	2.24276	2.24275
17.28	2.24441	2.24276	2.24276
17.3	2.24441	2.24277	2.24276
17.32	2.2444	2.24277	2.24277
17.34	2.24439	2.24278	2.24277
17.36	2.24438	2.24278	2.24278
17.38	2.24437	2.24278	2.24278
17.4	2.24436	2.24279	2.24279
17.42	2.24435	2.24279	2.24279
17.44	2.24434	2.2428	2.2428
17.46	2.24433	2.2428	2.2428
17.48	2.24432	2.24281	2.24281
17.5	2.24431	2.24281	2.24281
17.52	2.2443	2.24282	2.24282
17.54	2.2443	2.24282	2.24282
17.56	2.24429	2.24282	2.24282
17.58	2.24428	2.24283	2.24283
17.6	2.24427	2.24283	2.24283
17.62	2.24426	2.24284	2.24284
17.64	2.24425	2.24284	2.24284
17.66	2.24424	2.24285	2.24285
17.68	2.24424	2.24285	2.24285
17.7	2.24423	2.24285	2.24285
17.72	2.24422	2.24286	2.24286
17.74	2.24421	2.24286	2.24286
17.76	2.2442	2.24287	2.24287
17.78	2.2442	2.24287	2.24287
17.8	2.24419	2.24287	2.24287
17.82	2.24418	2.24288	2.24288
17.84	2.24417	2.24288	2.24288
17.86	2.24417	2.24289	2.24288
17.88	2.24416	2.24289	2.24289
17.9	2.24415	2.24289	2.24289
17.92	2.24414	2.2429	2.2429
17.94	2.24414	2.2429	2.2429
17.96	2.24413	2.2429	2.2429
17.98	2.24412	2.24291	2.24291
18	2.24411	2.24291	2.24291
18.02	2.24411	2.24291	2.24291
18.04	2.2441	2.24292	2.24292
18.06	2.24409	2.24292	2.24292
18.08	2.24409	2.24292	2.24292
18.1	2.24408	2.24293	2.24293
18.12	2.24407	2.24293	2.24293
18.14	2.24407	2.24293	2.24293
18.16	2.24406	2.24294	2.24294
18.18	2.24405	2.24294	2.24294
18.2	2.24405	2.24294	2.24294
18.22	2.24404	2.24295	2.24295
18.24	2.24403	2.24295	2.24295
18.26	2.24403	2.24295	2.24295
18.28	2.24402	2.24296	2.24296
18.3	2.24402	2.24296	2.24296
18.32	2.24401	2.24296	2.24296
18.34	2.244	2.24297	2.24297
18.36	2.244	2.24297	2.24297
18.38	2.24399	2.24297	2.24297
18.4	2.24399	2.24298	2.24297
18.42	2.24398	2.24298	2.24298
18.44	2.24397	2.24298	2.24298
18.46	2.24397	2.24298	2.24298
18.48	2.24396	2.24299	2.24299
18.5	2.24396	2.24299	2.24299
18.52	2.24395	2.24299	2.24299
18.54	2.24395	2.243	2.24299
18.56	2.24394	2.243	2.243
18.58	2.24393	2.243	2.243
18.6	2.24393	2.243	2.243
18.62	2.24392	2.24301	2.24301
18.64	2.24392	2.24301	2.24301
18.66	2.24391	2.24301	2.24301
18.68	2.24391	2.24301	2.24301
18.7	2.2439	2.24302	2.24302
18.72	2.2439	2.24302	2.24302
18.74	2.24389	2.24302	2.24302
18.76	2.24389	2.24302	2.24302
18.78	2.24388	2.24303	2.24303
18.8	2.24388	2.24303	2.24303
18.82	2.24387	2.24303	2.24303
18.84	2.24387	2.24303	2.24303
18.86	2.24386	2.24304	2.24304
18.88	2.24386	2.24304	2.24304
18.9	2.24385	2.24304	2.24304
18.92	2.24385	2.24304	2.24304
18.94	2.24384	2.24305	2.24305
18.96	2.24384	2.24305	2.24305
18.98	2.24383	2.24305	2.24305
19	2.24383	2.24305	2.24305
19.02	2.24382	2.24306	2.24306
19.04	2.24382	2.24306	2.24306
19.06	2.24382	2.24306	2.24306
19.08	2.24381	2.24306	2.24306
19.1	2.24381	2.24306	2.24306
19.12	2.2438	2.24307	2.24307
19.14	2.2438	2.24307	2.24307
19.16	2.24379	2.24307	2.24307
19.18	2.24379	2.24307	2.24307
19.2	2.24379	2.24308	2.24307
19.22	2.24378	2.24308	2.24308
19.24	2.24378	2.24308	2.24308
19.26	2.24377	2.24308	2.24308
19.28	2.24377	2.24308	2.24308
19.3	2.24377	2.24309	2.24308
19.32	2.24376	2.24309	2.24309
19.34	2.24376	2.24309	2.24309
19.36	2.24375	2.24309	2.24309
19.38	2.24375	2.24309	2.24309
19.4	2.24375	2.2431	2.24309
19.42	2.24374	2.2431	2.2431
19.44	2.24374	2.2431	2.2431
19.46	2.24373	2.2431	2.2431
19.48	2.24373	2.2431	2.2431
19.5	2.24373	2.2431	2.2431
19.52	2.24372	2.24311	2.24311
19.54	2.24372	2.24311	2.24311
19.56	2.24372	2.24311	2.24311
19.58	2.24371	2.24311	2.24311
19.6	2.24371	2.24311	2.24311
19.62	2.24371	2.24312	2.24311
19.64	2.2437	2.24312	2.24312
19.66	2.2437	2.24312	2.24312
19.68	2.2437	2.24312	2.24312
19.7	2.24369	2.24312	2.24312
19.72	2.24369	2.24312	2.24312
19.74	2.24369	2.24313	2.24312
19.76	2.24368	2.24313	2.24313
19.78	2.24368	2.24313	2.24313
19.8	2.24368	2.24313	2.24313
19.82	2.24367	2.24313	2.24313
19.84	2.24367	2.24313	2.24313
19.86	2.24367	2.24313	2.24313
19.88	2.24366	2.24314	2.24314
19.9	2.24366	2.24314	2.24314
19.92	2.24366	2.24314	2.24314
19.94	2.24365	2.24314	2.24314
19.96	2.24365	2.24314	2.24314
19.98	2.24365	2.24314	2.24314
20	2.24365	2.24315	2.24314
